File: A题/battery_data/5Nature论文电池数据集/Capacity_data_csv/Capacity_data.csv
Cycle,Capacity_Ah
0,37.20271
5,34.51914
10,34.07005
15,33.74975
20,33.54879
25,33.2665
30,33.05934
35,32.86387
40,32.69147
45,32.79373
50,32.59867
55,32.45003
60,32.30145
65,32.00484
70,31.83152
75,31.67409
80,31.51869
85,31.52708
90,31.36125
95,31.11822
100,30.71305
105,30.47258
110,30.19904
115,29.83496
120,29.49157
125,29.22588
130,28.74296
135,28.2444
140,27.89986
145,27.84268
150,27.61069
155,26.99298
160,26.79925
165,26.46313
170,26.05509
175,25.62528
180,25.14023
185,24.43739
190,24.00634
195,23.70942
200,36.7717
205,32.96715
210,32.1315
215,31.68117
220,31.24853
225,31.01906
230,30.76906
235,30.56924
240,30.38649
245,30.23085
250,30.1589
255,29.99051
260,29.83163
265,29.66263
270,29.62393
275,29.51865
280,29.44575
285,29.39301
290,29.08581
295,28.99254
300,28.91847
305,28.96362
310,28.87152
315,28.66045
320,28.55213
325,28.5034
330,28.5133
335,28.47226
340,28.41211
345,28.31351
350,28.24336
355,28.1111
360,28.11749
365,28.06431
370,27.95226
375,27.75411
380,27.73809
385,27.67734
390,27.80012
395,27.78768
400,27.46615
405,27.23247
410,27.32331
415,27.70159
420,27.67093
425,27.63007
430,27.56011
435,26.77427
440,26.67924
445,26.77299
450,35.06084
455,28.31015
460,27.48992
465,27.12985
470,27.09483
475,27.11537
480,27.07044
485,27.03669
490,26.89334
495,26.86529
500,26.72864
505,26.63318
510,26.54711
515,26.62249
520,26.4655
525,26.39674
530,26.31483
535,26.29715
540,26.10639
545,26.0019
550,25.99972
555,25.95035
560,25.922
565,25.90986
570,25.79543
575,25.73736
580,25.71058
585,25.59598
590,25.50365
595,25.45988
600,25.3439
605,25.36581
610,25.27105
615,25.19944
620,25.29547
625,24.96707
630,24.88258
635,24.80646
640,24.72546
645,25.03909
650,25.06197
655,24.88461
660,24.53826
665,24.46796
670,24.01542
675,24.01242
680,34.23352
685,32.0696
690,31.49226
695,31.18109
700,31.07727
705,31.01463
710,30.66349
715,30.52542
720,30.73209
725,30.87375
730,30.75604
735,30.46833
740,30.25681
745,29.58415
750,29.41446
755,29.85303
760,40.11331
765,38.30385
770,37.69489
775,37.27494
780,36.90946
785,36.5757
790,36.19407
795,35.87683
800,35.54109
805,35.22156
810,34.97941
815,34.72359
820,34.4614
825,34.21148
830,33.90219
835,33.67131
840,33.42313
845,33.21836
850,33.0491
855,32.83899
860,32.5735
865,32.3227
870,32.02565
875,31.80216
880,31.6035
885,31.51259
890,31.34141
895,31.1265
900,30.88141
905,30.73888
910,30.65274
915,30.51399
920,30.23128
925,30.06929
930,29.82169
935,29.65529
940,29.58148
945,29.37505
950,29.16364
955,28.9011
960,28.71029
965,28.52041
970,28.48845
975,28.28193
980,28.05614
985,27.90631
990,27.81318
995,27.60821
1000,27.30778
1005,27.10062
1010,26.88619
1015,26.75929
1020,26.53125
1025,26.23031
1030,25.8971
1035,25.63669
1040,25.30349
1045,24.92278
1050,24.34909
1055,23.4867
1060,41.87066
1065,40.8994
1070,40.50452
1075,40.19771
1080,39.89863
1085,39.75293
1090,39.50496
1095,39.37012
1100,39.23398
1105,39.03842
1110,38.86923
1115,38.71333
1120,38.5992
1125,38.45159
1130,38.2688
1135,38.12156
1140,37.98397
1145,37.81192
1150,37.65624
1155,37.44874
1160,37.28806
1165,37.09174
1170,36.93755
1175,36.8125
1180,36.60392
1185,36.41551
1190,36.20231
1195,36.05267
1200,35.87791
1205,35.68158
1210,35.48159
1215,35.32725
1220,35.20739
1225,35.09308
1230,34.96049
1235,34.80455
1240,34.57349
1245,34.37492
1250,34.21637
1255,34.0965
1260,33.95771
1265,33.85493
1270,33.71532
1275,33.57215
1280,33.37127
1285,33.15319
1290,32.96568
1295,32.83465
1300,32.70775
1305,32.5949
1310,32.41526
1315,32.27242
1320,32.11633
1325,31.95911
1330,31.75261
1335,31.60213
1340,31.51685
1345,31.36872
1350,31.1851
1355,31.01811
1357,30.9215