File: A题/battery_data/kaggle/oxford/oxford_summary.csv
Cell_ID,Total_Cycles,Initial_Capacity_Ah,Final_Capacity_Ah,Avg_Voltage_V,Avg_Temperature_C,Capacity_Fade_Pct
1,78,739.111,560.65,3.74211,40.0452,24.15
2,73,734.819,544.915,3.73502,40.5572,25.84
3,76,735.12,565.857,3.7395,40.4364,23.03
4,47,734.076,581.234,3.74585,40.7957,20.82
5,46,735.336,456.129,3.73988,41.528,37.97
6,46,732.795,579.023,3.74312,41.4674,20.98
7,77,728.746,582.807,3.73624,41.3329,20.03
8,76,727.528,558.958,3.73879,40.6251,23.17